# F2 Net System Transmission with HK Filter
# (BARR ED152; Gemini ID HK_G0806) (1=100%)
# Wavelength (micron)
1.1500	0.0001
1.1505	0.0001
1.1510	0.0001
1.1515	0.0000
1.1520	0.0001
1.1525	0.0001
1.1530	0.0001
1.1535	0.0001
1.1540	0.0000
1.1545	0.0001
1.1550	0.0000
1.1555	0.0001
1.1560	0.0001
1.1565	0.0000
1.1570	0.0001
1.1575	0.0000
1.1580	0.0001
1.1585	0.0001
1.1590	0.0000
1.1595	0.0000
1.1600	0.0001
1.1605	0.0001
1.1610	0.0000
1.1615	0.0001
1.1620	0.0001
1.1625	0.0001
1.1630	0.0001
1.1635	0.0000
1.1640	0.0001
1.1645	0.0001
1.1650	0.0001
1.1655	0.0001
1.1660	0.0001
1.1665	0.0000
1.1670	0.0000
1.1675	0.0001
1.1680	0.0001
1.1685	0.0000
1.1690	0.0001
1.1695	0.0000
1.1700	0.0001
1.1705	0.0000
1.1710	0.0000
1.1715	0.0000
1.1720	0.0001
1.1725	0.0000
1.1730	0.0001
1.1735	0.0001
1.1740	0.0000
1.1745	0.0001
1.1750	0.0001
1.1755	0.0001
1.1760	0.0001
1.1765	0.0001
1.1770	0.0001
1.1775	0.0001
1.1780	0.0001
1.1785	0.0000
1.1790	0.0000
1.1795	0.0001
1.1800	0.0001
1.1805	0.0001
1.1810	0.0000
1.1815	0.0001
1.1820	0.0001
1.1825	0.0001
1.1830	0.0001
1.1835	0.0000
1.1840	0.0001
1.1845	0.0001
1.1850	0.0001
1.1855	0.0000
1.1860	0.0000
1.1865	0.0001
1.1870	0.0001
1.1875	0.0001
1.1880	0.0001
1.1885	0.0001
1.1890	0.0000
1.1895	0.0000
1.1900	0.0000
1.1905	0.0000
1.1910	0.0001
1.1915	0.0001
1.1920	0.0001
1.1925	0.0000
1.1930	0.0001
1.1935	0.0001
1.1940	0.0000
1.1945	0.0001
1.1950	0.0001
1.1955	0.0001
1.1960	0.0001
1.1965	0.0001
1.1970	0.0000
1.1975	0.0001
1.1980	0.0001
1.1985	0.0001
1.1990	0.0000
1.1995	0.0001
1.2000	0.0001
1.2005	0.0001
1.2010	0.0001
1.2015	0.0000
1.2020	0.0001
1.2025	0.0001
1.2030	0.0001
1.2035	0.0001
1.2040	0.0001
1.2045	0.0000
1.2050	0.0000
1.2055	0.0000
1.2060	0.0001
1.2065	0.0001
1.2070	0.0001
1.2075	0.0001
1.2080	0.0001
1.2085	0.0001
1.2090	0.0001
1.2095	0.0000
1.2100	0.0001
1.2105	0.0001
1.2110	0.0001
1.2115	0.0001
1.2120	0.0001
1.2125	0.0001
1.2130	0.0001
1.2135	0.0001
1.2140	0.0001
1.2145	0.0001
1.2150	0.0001
1.2155	0.0001
1.2160	0.0001
1.2165	0.0001
1.2170	0.0001
1.2175	0.0001
1.2180	0.0001
1.2185	0.0001
1.2190	0.0001
1.2195	0.0001
1.2200	0.0001
1.2205	0.0001
1.2210	0.0001
1.2215	0.0001
1.2220	0.0001
1.2225	0.0002
1.2230	0.0001
1.2235	0.0001
1.2240	0.0002
1.2245	0.0002
1.2250	0.0002
1.2255	0.0002
1.2260	0.0002
1.2265	0.0002
1.2270	0.0002
1.2275	0.0003
1.2280	0.0003
1.2285	0.0003
1.2290	0.0004
1.2295	0.0003
1.2300	0.0004
1.2305	0.0004
1.2310	0.0005
1.2315	0.0004
1.2320	0.0006
1.2325	0.0006
1.2330	0.0006
1.2335	0.0007
1.2340	0.0009
1.2345	0.0009
1.2350	0.0011
1.2355	0.0011
1.2360	0.0012
1.2365	0.0014
1.2370	0.0015
1.2375	0.0017
1.2380	0.0019
1.2385	0.0021
1.2390	0.0024
1.2395	0.0027
1.2400	0.0030
1.2405	0.0034
1.2410	0.0038
1.2415	0.0042
1.2420	0.0048
1.2425	0.0054
1.2430	0.0060
1.2435	0.0068
1.2440	0.0077
1.2445	0.0087
1.2450	0.0098
1.2455	0.0111
1.2460	0.0125
1.2465	0.0142
1.2470	0.0162
1.2475	0.0183
1.2480	0.0207
1.2485	0.0234
1.2490	0.0264
1.2495	0.0299
1.2500	0.0337
1.2505	0.0383
1.2510	0.0431
1.2515	0.0488
1.2520	0.0552
1.2525	0.0621
1.2530	0.0703
1.2535	0.0793
1.2540	0.0894
1.2545	0.1007
1.2550	0.1135
1.2555	0.1278
1.2560	0.1434
1.2565	0.1614
1.2570	0.1807
1.2575	0.2016
1.2580	0.2241
1.2585	0.2474
1.2590	0.2729
1.2595	0.2985
1.2600	0.3258
1.2605	0.3536
1.2610	0.3803
1.2615	0.4061
1.2620	0.4312
1.2625	0.4567
1.2630	0.4791
1.2635	0.5006
1.2640	0.5199
1.2645	0.5370
1.2650	0.5513
1.2655	0.5637
1.2660	0.5753
1.2665	0.5836
1.2670	0.5900
1.2675	0.5955
1.2680	0.6005
1.2685	0.6044
1.2690	0.6077
1.2695	0.6114
1.2700	0.6149
1.2705	0.6175
1.2710	0.6203
1.2715	0.6240
1.2720	0.6271
1.2725	0.6297
1.2730	0.6319
1.2735	0.6351
1.2740	0.6378
1.2745	0.6394
1.2750	0.6419
1.2755	0.6448
1.2760	0.6459
1.2765	0.6481
1.2770	0.6507
1.2775	0.6525
1.2780	0.6538
1.2785	0.6552
1.2790	0.6565
1.2795	0.6572
1.2800	0.6568
1.2805	0.6573
1.2810	0.6580
1.2815	0.6569
1.2820	0.6556
1.2825	0.6541
1.2830	0.6516
1.2835	0.6481
1.2840	0.6456
1.2845	0.6429
1.2850	0.6397
1.2855	0.6354
1.2860	0.6320
1.2865	0.6292
1.2870	0.6258
1.2875	0.6218
1.2880	0.6183
1.2885	0.6136
1.2890	0.6083
1.2895	0.6030
1.2900	0.5990
1.2905	0.5942
1.2910	0.5889
1.2915	0.5843
1.2920	0.5800
1.2925	0.5744
1.2930	0.5693
1.2935	0.5646
1.2940	0.5606
1.2945	0.5551
1.2950	0.5507
1.2955	0.5472
1.2960	0.5440
1.2965	0.5419
1.2970	0.5406
1.2975	0.5405
1.2980	0.5399
1.2985	0.5392
1.2990	0.5404
1.2995	0.5417
1.3000	0.5422
1.3005	0.5447
1.3010	0.5480
1.3015	0.5517
1.3020	0.5548
1.3025	0.5595
1.3030	0.5647
1.3035	0.5691
1.3040	0.5745
1.3045	0.5815
1.3050	0.5885
1.3055	0.5947
1.3060	0.6006
1.3065	0.6084
1.3070	0.6153
1.3075	0.6216
1.3080	0.6285
1.3085	0.6359
1.3090	0.6418
1.3095	0.6468
1.3100	0.6525
1.3105	0.6576
1.3110	0.6602
1.3115	0.6626
1.3120	0.6653
1.3125	0.6659
1.3130	0.6644
1.3135	0.6639
1.3140	0.6631
1.3145	0.6602
1.3150	0.6567
1.3155	0.6541
1.3160	0.6509
1.3165	0.6471
1.3170	0.6440
1.3175	0.6420
1.3180	0.6387
1.3185	0.6351
1.3190	0.6331
1.3195	0.6313
1.3200	0.6289
1.3205	0.6263
1.3210	0.6254
1.3215	0.6239
1.3220	0.6224
1.3225	0.6214
1.3230	0.6221
1.3235	0.6218
1.3240	0.6220
1.3245	0.6232
1.3250	0.6252
1.3255	0.6265
1.3260	0.6284
1.3265	0.6321
1.3270	0.6355
1.3275	0.6381
1.3280	0.6414
1.3285	0.6447
1.3290	0.6474
1.3295	0.6492
1.3300	0.6524
1.3305	0.6561
1.3310	0.6585
1.3315	0.6610
1.3320	0.6641
1.3325	0.6664
1.3330	0.6669
1.3335	0.6678
1.3340	0.6696
1.3345	0.6688
1.3350	0.6673
1.3355	0.6671
1.3360	0.6661
1.3365	0.6648
1.3370	0.6632
1.3375	0.6629
1.3380	0.6618
1.3385	0.6598
1.3390	0.6585
1.3395	0.6580
1.3400	0.6564
1.3405	0.6541
1.3410	0.6533
1.3415	0.6526
1.3420	0.6506
1.3425	0.6501
1.3430	0.6505
1.3435	0.6501
1.3440	0.6498
1.3445	0.6493
1.3450	0.6501
1.3455	0.6496
1.3460	0.6490
1.3465	0.6500
1.3470	0.6508
1.3475	0.6506
1.3480	0.6513
1.3485	0.6534
1.3490	0.6557
1.3495	0.6561
1.3500	0.6581
1.3505	0.6613
1.3510	0.6630
1.3515	0.6643
1.3520	0.6665
1.3525	0.6660
1.3530	0.6645
1.3535	0.6623
1.3540	0.6614
1.3545	0.6601
1.3550	0.6573
1.3555	0.6549
1.3560	0.6536
1.3565	0.6508
1.3570	0.6473
1.3575	0.6448
1.3580	0.6418
1.3585	0.6372
1.3590	0.6330
1.3595	0.6295
1.3600	0.6257
1.3605	0.6216
1.3610	0.6178
1.3615	0.6141
1.3620	0.6091
1.3625	0.6046
1.3630	0.6015
1.3635	0.5987
1.3640	0.5941
1.3645	0.5898
1.3650	0.5863
1.3655	0.5838
1.3660	0.5809
1.3665	0.5793
1.3670	0.5782
1.3675	0.5759
1.3680	0.5741
1.3685	0.5740
1.3690	0.5736
1.3695	0.5730
1.3700	0.5729
1.3705	0.5729
1.3710	0.5732
1.3715	0.5730
1.3720	0.5734
1.3725	0.5779
1.3730	0.5809
1.3735	0.5844
1.3740	0.5897
1.3745	0.5941
1.3750	0.5981
1.3755	0.6024
1.3760	0.6077
1.3765	0.6124
1.3770	0.6168
1.3775	0.6216
1.3780	0.6269
1.3785	0.6295
1.3790	0.6322
1.3795	0.6352
1.3800	0.6389
1.3805	0.6438
1.3810	0.6489
1.3815	0.6541
1.3820	0.6579
1.3825	0.6618
1.3830	0.6664
1.3835	0.6700
1.3840	0.6729
1.3845	0.6738
1.3850	0.6747
1.3855	0.6754
1.3860	0.6751
1.3865	0.6751
1.3870	0.6756
1.3875	0.6747
1.3880	0.6728
1.3885	0.6719
1.3890	0.6714
1.3895	0.6691
1.3900	0.6674
1.3905	0.6654
1.3910	0.6632
1.3915	0.6603
1.3920	0.6574
1.3925	0.6553
1.3930	0.6538
1.3935	0.6521
1.3940	0.6504
1.3945	0.6489
1.3950	0.6461
1.3955	0.6439
1.3960	0.6419
1.3965	0.6399
1.3970	0.6375
1.3975	0.6364
1.3980	0.6352
1.3985	0.6346
1.3990	0.6335
1.3995	0.6329
1.4000	0.6329
1.4005	0.6330
1.4010	0.6340
1.4015	0.6350
1.4020	0.6373
1.4025	0.6385
1.4030	0.6400
1.4035	0.6422
1.4040	0.6444
1.4045	0.6455
1.4050	0.6478
1.4055	0.6502
1.4060	0.6520
1.4065	0.6539
1.4070	0.6561
1.4075	0.6588
1.4080	0.6606
1.4085	0.6635
1.4090	0.6668
1.4095	0.6702
1.4100	0.6726
1.4105	0.6759
1.4110	0.6796
1.4115	0.6827
1.4120	0.6850
1.4125	0.6868
1.4130	0.6888
1.4135	0.6895
1.4140	0.6905
1.4145	0.6910
1.4150	0.6909
1.4155	0.6906
1.4160	0.6898
1.4165	0.6904
1.4170	0.6905
1.4175	0.6894
1.4180	0.6888
1.4185	0.6878
1.4190	0.6853
1.4195	0.6830
1.4200	0.6816
1.4205	0.6797
1.4210	0.6770
1.4215	0.6748
1.4220	0.6732
1.4225	0.6716
1.4230	0.6692
1.4235	0.6673
1.4240	0.6659
1.4245	0.6653
1.4250	0.6638
1.4255	0.6638
1.4260	0.6640
1.4265	0.6636
1.4270	0.6643
1.4275	0.6655
1.4280	0.6663
1.4285	0.6663
1.4290	0.6673
1.4295	0.6689
1.4300	0.6694
1.4305	0.6692
1.4310	0.6697
1.4315	0.6705
1.4320	0.6703
1.4325	0.6712
1.4330	0.6734
1.4335	0.6754
1.4340	0.6760
1.4345	0.6782
1.4350	0.6803
1.4355	0.6814
1.4360	0.6823
1.4365	0.6849
1.4370	0.6874
1.4375	0.6889
1.4380	0.6907
1.4385	0.6919
1.4390	0.6925
1.4395	0.6922
1.4400	0.6929
1.4405	0.6937
1.4410	0.6933
1.4415	0.6920
1.4420	0.6927
1.4425	0.6932
1.4430	0.6933
1.4435	0.6940
1.4440	0.6952
1.4445	0.6949
1.4450	0.6940
1.4455	0.6939
1.4460	0.6944
1.4465	0.6948
1.4470	0.6954
1.4475	0.6965
1.4480	0.6978
1.4485	0.6960
1.4490	0.6947
1.4495	0.6948
1.4500	0.6935
1.4505	0.6927
1.4510	0.6930
1.4515	0.6938
1.4520	0.6934
1.4525	0.6939
1.4530	0.6953
1.4535	0.6963
1.4540	0.6965
1.4545	0.6982
1.4550	0.7012
1.4555	0.7038
1.4560	0.7053
1.4565	0.7071
1.4570	0.7092
1.4575	0.7102
1.4580	0.7113
1.4585	0.7131
1.4590	0.7141
1.4595	0.7142
1.4600	0.7151
1.4605	0.7190
1.4610	0.7220
1.4615	0.7247
1.4620	0.7280
1.4625	0.7324
1.4630	0.7354
1.4635	0.7379
1.4640	0.7422
1.4645	0.7442
1.4650	0.7443
1.4655	0.7455
1.4660	0.7474
1.4665	0.7466
1.4670	0.7455
1.4675	0.7448
1.4680	0.7443
1.4685	0.7436
1.4690	0.7429
1.4695	0.7426
1.4700	0.7426
1.4705	0.7409
1.4710	0.7401
1.4715	0.7398
1.4720	0.7386
1.4725	0.7355
1.4730	0.7342
1.4735	0.7330
1.4740	0.7304
1.4745	0.7269
1.4750	0.7249
1.4755	0.7222
1.4760	0.7187
1.4765	0.7151
1.4770	0.7121
1.4775	0.7090
1.4780	0.7051
1.4785	0.7040
1.4790	0.7039
1.4795	0.7018
1.4800	0.7009
1.4805	0.7009
1.4810	0.7001
1.4815	0.6991
1.4820	0.6992
1.4825	0.7005
1.4830	0.7010
1.4835	0.7018
1.4840	0.7032
1.4845	0.7040
1.4850	0.7039
1.4855	0.7040
1.4860	0.7053
1.4865	0.7063
1.4870	0.7054
1.4875	0.7067
1.4880	0.7080
1.4885	0.7098
1.4890	0.7111
1.4895	0.7138
1.4900	0.7160
1.4905	0.7178
1.4910	0.7196
1.4915	0.7217
1.4920	0.7240
1.4925	0.7261
1.4930	0.7280
1.4935	0.7314
1.4940	0.7334
1.4945	0.7346
1.4950	0.7373
1.4955	0.7397
1.4960	0.7405
1.4965	0.7413
1.4970	0.7424
1.4975	0.7430
1.4980	0.7434
1.4985	0.7414
1.4990	0.7404
1.4995	0.7385
1.5000	0.7359
1.5005	0.7380
1.5010	0.7404
1.5015	0.7413
1.5020	0.7423
1.5025	0.7444
1.5030	0.7463
1.5035	0.7475
1.5040	0.7489
1.5045	0.7500
1.5050	0.7502
1.5055	0.7499
1.5060	0.7504
1.5065	0.7509
1.5070	0.7503
1.5075	0.7498
1.5080	0.7496
1.5085	0.7494
1.5090	0.7489
1.5095	0.7482
1.5100	0.7487
1.5105	0.7488
1.5110	0.7479
1.5115	0.7481
1.5120	0.7481
1.5125	0.7488
1.5130	0.7489
1.5135	0.7495
1.5140	0.7505
1.5145	0.7509
1.5150	0.7506
1.5155	0.7519
1.5160	0.7528
1.5165	0.7522
1.5170	0.7526
1.5175	0.7532
1.5180	0.7534
1.5185	0.7540
1.5190	0.7554
1.5195	0.7569
1.5200	0.7575
1.5205	0.7579
1.5210	0.7592
1.5215	0.7604
1.5220	0.7610
1.5225	0.7615
1.5230	0.7630
1.5235	0.7641
1.5240	0.7644
1.5245	0.7633
1.5250	0.7625
1.5255	0.7611
1.5260	0.7593
1.5265	0.7590
1.5270	0.7598
1.5275	0.7591
1.5280	0.7588
1.5285	0.7607
1.5290	0.7630
1.5295	0.7646
1.5300	0.7659
1.5305	0.7683
1.5310	0.7695
1.5315	0.7701
1.5320	0.7720
1.5325	0.7725
1.5330	0.7722
1.5335	0.7717
1.5340	0.7719
1.5345	0.7722
1.5350	0.7719
1.5355	0.7708
1.5360	0.7715
1.5365	0.7725
1.5370	0.7719
1.5375	0.7728
1.5380	0.7744
1.5385	0.7744
1.5390	0.7740
1.5395	0.7749
1.5400	0.7753
1.5405	0.7741
1.5410	0.7732
1.5415	0.7733
1.5420	0.7726
1.5425	0.7721
1.5430	0.7728
1.5435	0.7739
1.5440	0.7742
1.5445	0.7730
1.5450	0.7738
1.5455	0.7741
1.5460	0.7732
1.5465	0.7716
1.5470	0.7715
1.5475	0.7705
1.5480	0.7685
1.5485	0.7695
1.5490	0.7720
1.5495	0.7732
1.5500	0.7734
1.5505	0.7711
1.5510	0.7689
1.5515	0.7655
1.5520	0.7620
1.5525	0.7595
1.5530	0.7567
1.5535	0.7520
1.5540	0.7490
1.5545	0.7496
1.5550	0.7489
1.5555	0.7478
1.5560	0.7484
1.5565	0.7476
1.5570	0.7453
1.5575	0.7433
1.5580	0.7429
1.5585	0.7417
1.5590	0.7395
1.5595	0.7383
1.5600	0.7379
1.5605	0.7377
1.5610	0.7364
1.5615	0.7371
1.5620	0.7380
1.5625	0.7377
1.5630	0.7370
1.5635	0.7385
1.5640	0.7392
1.5645	0.7392
1.5650	0.7390
1.5655	0.7410
1.5660	0.7413
1.5665	0.7411
1.5670	0.7418
1.5675	0.7433
1.5680	0.7437
1.5685	0.7442
1.5690	0.7470
1.5695	0.7497
1.5700	0.7506
1.5705	0.7524
1.5710	0.7551
1.5715	0.7570
1.5720	0.7578
1.5725	0.7607
1.5730	0.7648
1.5735	0.7668
1.5740	0.7687
1.5745	0.7685
1.5750	0.7680
1.5755	0.7661
1.5760	0.7649
1.5765	0.7659
1.5770	0.7662
1.5775	0.7650
1.5780	0.7654
1.5785	0.7684
1.5790	0.7702
1.5795	0.7716
1.5800	0.7741
1.5805	0.7753
1.5810	0.7752
1.5815	0.7758
1.5820	0.7774
1.5825	0.7782
1.5830	0.7783
1.5835	0.7792
1.5840	0.7808
1.5845	0.7795
1.5850	0.7777
1.5855	0.7771
1.5860	0.7766
1.5865	0.7748
1.5870	0.7733
1.5875	0.7736
1.5880	0.7724
1.5885	0.7729
1.5890	0.7738
1.5895	0.7755
1.5900	0.7761
1.5905	0.7756
1.5910	0.7763
1.5915	0.7772
1.5920	0.7764
1.5925	0.7785
1.5930	0.7812
1.5935	0.7842
1.5940	0.7856
1.5945	0.7836
1.5950	0.7820
1.5955	0.7797
1.5960	0.7768
1.5965	0.7760
1.5970	0.7750
1.5975	0.7722
1.5980	0.7702
1.5985	0.7696
1.5990	0.7684
1.5995	0.7666
1.6000	0.7654
1.6005	0.7651
1.6010	0.7639
1.6015	0.7622
1.6020	0.7618
1.6025	0.7607
1.6030	0.7587
1.6035	0.7565
1.6040	0.7556
1.6045	0.7544
1.6050	0.7521
1.6055	0.7505
1.6060	0.7491
1.6065	0.7472
1.6070	0.7445
1.6075	0.7427
1.6080	0.7413
1.6085	0.7394
1.6090	0.7373
1.6095	0.7360
1.6100	0.7354
1.6105	0.7336
1.6110	0.7323
1.6115	0.7329
1.6120	0.7315
1.6125	0.7294
1.6130	0.7282
1.6135	0.7272
1.6140	0.7257
1.6145	0.7240
1.6150	0.7227
1.6155	0.7217
1.6160	0.7200
1.6165	0.7191
1.6170	0.7198
1.6175	0.7199
1.6180	0.7190
1.6185	0.7187
1.6190	0.7186
1.6195	0.7179
1.6200	0.7175
1.6205	0.7176
1.6210	0.7181
1.6215	0.7176
1.6220	0.7174
1.6225	0.7190
1.6230	0.7200
1.6235	0.7206
1.6240	0.7214
1.6245	0.7233
1.6250	0.7244
1.6255	0.7247
1.6260	0.7267
1.6265	0.7305
1.6270	0.7332
1.6275	0.7359
1.6280	0.7399
1.6285	0.7454
1.6290	0.7503
1.6295	0.7554
1.6300	0.7615
1.6305	0.7617
1.6310	0.7606
1.6315	0.7608
1.6320	0.7612
1.6325	0.7612
1.6330	0.7603
1.6335	0.7608
1.6340	0.7615
1.6345	0.7613
1.6350	0.7623
1.6355	0.7638
1.6360	0.7644
1.6365	0.7643
1.6370	0.7650
1.6375	0.7662
1.6380	0.7662
1.6385	0.7650
1.6390	0.7651
1.6395	0.7652
1.6400	0.7636
1.6405	0.7624
1.6410	0.7621
1.6415	0.7612
1.6420	0.7588
1.6425	0.7586
1.6430	0.7588
1.6435	0.7582
1.6440	0.7566
1.6445	0.7556
1.6450	0.7550
1.6455	0.7531
1.6460	0.7504
1.6465	0.7505
1.6470	0.7493
1.6475	0.7466
1.6480	0.7453
1.6485	0.7442
1.6490	0.7415
1.6495	0.7391
1.6500	0.7375
1.6505	0.7358
1.6510	0.7330
1.6515	0.7301
1.6520	0.7288
1.6525	0.7280
1.6530	0.7259
1.6535	0.7247
1.6540	0.7249
1.6545	0.7251
1.6550	0.7247
1.6555	0.7262
1.6560	0.7279
1.6565	0.7254
1.6570	0.7239
1.6575	0.7235
1.6580	0.7226
1.6585	0.7200
1.6590	0.7170
1.6595	0.7164
1.6600	0.7144
1.6605	0.7142
1.6610	0.7157
1.6615	0.7183
1.6620	0.7191
1.6625	0.7198
1.6630	0.7233
1.6635	0.7254
1.6640	0.7263
1.6645	0.7275
1.6650	0.7299
1.6655	0.7308
1.6660	0.7314
1.6665	0.7312
1.6670	0.7318
1.6675	0.7309
1.6680	0.7296
1.6685	0.7302
1.6690	0.7301
1.6695	0.7284
1.6700	0.7280
1.6705	0.7287
1.6710	0.7281
1.6715	0.7267
1.6720	0.7269
1.6725	0.7284
1.6730	0.7281
1.6735	0.7281
1.6740	0.7291
1.6745	0.7303
1.6750	0.7298
1.6755	0.7301
1.6760	0.7321
1.6765	0.7318
1.6770	0.7303
1.6775	0.7307
1.6780	0.7316
1.6785	0.7305
1.6790	0.7301
1.6795	0.7308
1.6800	0.7309
1.6805	0.7294
1.6810	0.7292
1.6815	0.7298
1.6820	0.7297
1.6825	0.7276
1.6830	0.7273
1.6835	0.7275
1.6840	0.7257
1.6845	0.7247
1.6850	0.7250
1.6855	0.7248
1.6860	0.7231
1.6865	0.7242
1.6870	0.7259
1.6875	0.7262
1.6880	0.7264
1.6885	0.7297
1.6890	0.7330
1.6895	0.7351
1.6900	0.7372
1.6905	0.7372
1.6910	0.7376
1.6915	0.7366
1.6920	0.7357
1.6925	0.7362
1.6930	0.7354
1.6935	0.7336
1.6940	0.7337
1.6945	0.7358
1.6950	0.7362
1.6955	0.7370
1.6960	0.7389
1.6965	0.7405
1.6970	0.7408
1.6975	0.7419
1.6980	0.7438
1.6985	0.7442
1.6990	0.7436
1.6995	0.7443
1.7000	0.7450
1.7005	0.7453
1.7010	0.7451
1.7015	0.7457
1.7020	0.7463
1.7025	0.7459
1.7030	0.7454
1.7035	0.7458
1.7040	0.7459
1.7045	0.7448
1.7050	0.7441
1.7055	0.7439
1.7060	0.7425
1.7065	0.7390
1.7070	0.7363
1.7075	0.7332
1.7080	0.7300
1.7085	0.7269
1.7090	0.7244
1.7095	0.7221
1.7100	0.7190
1.7105	0.7187
1.7110	0.7185
1.7115	0.7182
1.7120	0.7169
1.7125	0.7157
1.7130	0.7153
1.7135	0.7137
1.7140	0.7125
1.7145	0.7124
1.7150	0.7123
1.7155	0.7118
1.7160	0.7113
1.7165	0.7109
1.7170	0.7110
1.7175	0.7105
1.7180	0.7099
1.7185	0.7095
1.7190	0.7092
1.7195	0.7083
1.7200	0.7075
1.7205	0.7075
1.7210	0.7068
1.7215	0.7058
1.7220	0.7052
1.7225	0.7059
1.7230	0.7057
1.7235	0.7054
1.7240	0.7056
1.7245	0.7078
1.7250	0.7086
1.7255	0.7106
1.7260	0.7128
1.7265	0.7137
1.7270	0.7142
1.7275	0.7157
1.7280	0.7174
1.7285	0.7183
1.7290	0.7184
1.7295	0.7198
1.7300	0.7210
1.7305	0.7210
1.7310	0.7205
1.7315	0.7214
1.7320	0.7217
1.7325	0.7215
1.7330	0.7215
1.7335	0.7227
1.7340	0.7224
1.7345	0.7221
1.7350	0.7227
1.7355	0.7226
1.7360	0.7226
1.7365	0.7227
1.7370	0.7239
1.7375	0.7246
1.7380	0.7248
1.7385	0.7250
1.7390	0.7263
1.7395	0.7266
1.7400	0.7264
1.7405	0.7259
1.7410	0.7261
1.7415	0.7249
1.7420	0.7237
1.7425	0.7239
1.7430	0.7232
1.7435	0.7220
1.7440	0.7212
1.7445	0.7186
1.7450	0.7157
1.7455	0.7117
1.7460	0.7088
1.7465	0.7074
1.7470	0.7046
1.7475	0.7018
1.7480	0.7006
1.7485	0.7002
1.7490	0.6988
1.7495	0.6986
1.7500	0.6984
1.7505	0.6956
1.7510	0.6921
1.7515	0.6897
1.7520	0.6874
1.7525	0.6846
1.7530	0.6819
1.7535	0.6805
1.7540	0.6788
1.7545	0.6770
1.7550	0.6762
1.7555	0.6756
1.7560	0.6743
1.7565	0.6726
1.7570	0.6718
1.7575	0.6715
1.7580	0.6702
1.7585	0.6691
1.7590	0.6695
1.7595	0.6694
1.7600	0.6688
1.7605	0.6672
1.7610	0.6669
1.7615	0.6656
1.7620	0.6638
1.7625	0.6633
1.7630	0.6636
1.7635	0.6622
1.7640	0.6615
1.7645	0.6638
1.7650	0.6662
1.7655	0.6673
1.7660	0.6695
1.7665	0.6702
1.7670	0.6697
1.7675	0.6688
1.7680	0.6691
1.7685	0.6693
1.7690	0.6682
1.7695	0.6673
1.7700	0.6677
1.7705	0.6684
1.7710	0.6678
1.7715	0.6687
1.7720	0.6701
1.7725	0.6702
1.7730	0.6703
1.7735	0.6712
1.7740	0.6718
1.7745	0.6733
1.7750	0.6747
1.7755	0.6770
1.7760	0.6793
1.7765	0.6795
1.7770	0.6805
1.7775	0.6822
1.7780	0.6830
1.7785	0.6824
1.7790	0.6824
1.7795	0.6832
1.7800	0.6829
1.7805	0.6829
1.7810	0.6842
1.7815	0.6852
1.7820	0.6854
1.7825	0.6865
1.7830	0.6879
1.7835	0.6891
1.7840	0.6893
1.7845	0.6898
1.7850	0.6911
1.7855	0.6910
1.7860	0.6910
1.7865	0.6917
1.7870	0.6918
1.7875	0.6916
1.7880	0.6913
1.7885	0.6917
1.7890	0.6919
1.7895	0.6907
1.7900	0.6904
1.7905	0.6901
1.7910	0.6894
1.7915	0.6882
1.7920	0.6877
1.7925	0.6884
1.7930	0.6880
1.7935	0.6881
1.7940	0.6890
1.7945	0.6908
1.7950	0.6920
1.7955	0.6936
1.7960	0.6953
1.7965	0.6962
1.7970	0.6957
1.7975	0.6970
1.7980	0.6980
1.7985	0.6980
1.7990	0.6971
1.7995	0.6976
1.8000	0.6980
1.8005	0.6974
1.8010	0.6975
1.8015	0.6980
1.8020	0.6979
1.8025	0.6979
1.8030	0.6983
1.8035	0.6994
1.8040	0.6999
1.8045	0.6991
1.8050	0.6988
1.8055	0.6989
1.8060	0.6977
1.8065	0.6969
1.8070	0.6965
1.8075	0.6959
1.8080	0.6946
1.8085	0.6937
1.8090	0.6928
1.8095	0.6918
1.8100	0.6907
1.8105	0.6919
1.8110	0.6941
1.8115	0.6952
1.8120	0.6962
1.8125	0.6961
1.8130	0.6960
1.8135	0.6944
1.8140	0.6945
1.8145	0.6937
1.8150	0.6925
1.8155	0.6908
1.8160	0.6899
1.8165	0.6891
1.8170	0.6884
1.8175	0.6869
1.8180	0.6863
1.8185	0.6853
1.8190	0.6833
1.8195	0.6815
1.8200	0.6806
1.8205	0.6794
1.8210	0.6771
1.8215	0.6759
1.8220	0.6749
1.8225	0.6745
1.8230	0.6744
1.8235	0.6749
1.8240	0.6748
1.8245	0.6731
1.8250	0.6709
1.8255	0.6697
1.8260	0.6688
1.8265	0.6666
1.8270	0.6654
1.8275	0.6646
1.8280	0.6627
1.8285	0.6627
1.8290	0.6633
1.8295	0.6645
1.8300	0.6642
1.8305	0.6646
1.8310	0.6654
1.8315	0.6661
1.8320	0.6660
1.8325	0.6667
1.8330	0.6672
1.8335	0.6681
1.8340	0.6672
1.8345	0.6685
1.8350	0.6699
1.8355	0.6703
1.8360	0.6709
1.8365	0.6723
1.8370	0.6735
1.8375	0.6737
1.8380	0.6746
1.8385	0.6755
1.8390	0.6764
1.8395	0.6760
1.8400	0.6765
1.8405	0.6776
1.8410	0.6784
1.8415	0.6781
1.8420	0.6794
1.8425	0.6809
1.8430	0.6814
1.8435	0.6831
1.8440	0.6850
1.8445	0.6848
1.8450	0.6844
1.8455	0.6851
1.8460	0.6858
1.8465	0.6851
1.8470	0.6845
1.8475	0.6847
1.8480	0.6844
1.8485	0.6843
1.8490	0.6843
1.8495	0.6850
1.8500	0.6847
1.8505	0.6834
1.8510	0.6831
1.8515	0.6831
1.8520	0.6820
1.8525	0.6811
1.8530	0.6811
1.8535	0.6807
1.8540	0.6795
1.8545	0.6791
1.8550	0.6792
1.8555	0.6790
1.8560	0.6774
1.8565	0.6779
1.8570	0.6784
1.8575	0.6783
1.8580	0.6778
1.8585	0.6772
1.8590	0.6766
1.8595	0.6751
