# F2 Net System Transmission with Jlow Filter
# (BARR ED352; Gemini ID Jlow_G0801) (1=100%)
# Wavelength (micron)
0.9000	0.0000
0.9005	0.0000
0.9010	0.0000
0.9015	0.0000
0.9020	0.0000
0.9025	0.0000
0.9030	0.0000
0.9035	0.0000
0.9040	0.0000
0.9045	0.0000
0.9050	0.0000
0.9055	0.0000
0.9060	0.0000
0.9065	0.0000
0.9070	0.0000
0.9075	0.0000
0.9080	0.0000
0.9085	0.0000
0.9090	0.0000
0.9095	0.0000
0.9100	0.0000
0.9105	0.0000
0.9110	0.0000
0.9115	0.0000
0.9120	0.0000
0.9125	0.0000
0.9130	0.0000
0.9135	0.0000
0.9140	0.0000
0.9145	0.0000
0.9150	0.0000
0.9155	0.0000
0.9160	0.0000
0.9165	0.0000
0.9170	0.0000
0.9175	0.0000
0.9180	0.0000
0.9185	0.0000
0.9190	0.0000
0.9195	0.0000
0.9200	0.0000
0.9205	0.0000
0.9210	0.0000
0.9215	0.0000
0.9220	0.0000
0.9225	0.0000
0.9230	0.0000
0.9235	0.0000
0.9240	0.0000
0.9245	0.0000
0.9250	0.0000
0.9255	0.0000
0.9260	0.0000
0.9265	0.0000
0.9270	0.0000
0.9275	0.0000
0.9280	0.0000
0.9285	0.0000
0.9290	0.0000
0.9295	0.0000
0.9300	0.0000
0.9305	0.0000
0.9310	0.0000
0.9315	0.0001
0.9320	0.0000
0.9325	0.0000
0.9330	0.0000
0.9335	0.0000
0.9340	0.0000
0.9345	0.0000
0.9350	0.0000
0.9355	0.0000
0.9360	0.0000
0.9365	0.0000
0.9370	0.0000
0.9375	0.0000
0.9380	0.0000
0.9385	0.0000
0.9390	0.0000
0.9395	0.0001
0.9400	0.0001
0.9405	0.0000
0.9410	0.0000
0.9415	0.0000
0.9420	0.0000
0.9425	0.0000
0.9430	0.0000
0.9435	0.0000
0.9440	0.0001
0.9445	0.0000
0.9450	0.0000
0.9455	0.0000
0.9460	0.0000
0.9465	0.0000
0.9470	0.0000
0.9475	0.0000
0.9480	0.0000
0.9485	0.0000
0.9490	0.0000
0.9495	0.0000
0.9500	0.0000
0.9505	0.0001
0.9510	0.0000
0.9515	0.0000
0.9520	0.0000
0.9525	0.0000
0.9530	0.0000
0.9535	0.0000
0.9540	0.0000
0.9545	0.0000
0.9550	0.0000
0.9555	0.0000
0.9560	0.0000
0.9565	0.0000
0.9570	0.0000
0.9575	0.0000
0.9580	0.0000
0.9585	0.0000
0.9590	0.0000
0.9595	0.0001
0.9600	0.0000
0.9605	0.0000
0.9610	0.0000
0.9615	0.0000
0.9620	0.0001
0.9625	0.0000
0.9630	0.0000
0.9635	0.0001
0.9640	0.0000
0.9645	0.0000
0.9650	0.0000
0.9655	0.0000
0.9660	0.0000
0.9665	0.0000
0.9670	0.0000
0.9675	0.0000
0.9680	0.0000
0.9685	0.0000
0.9690	0.0000
0.9695	0.0000
0.9700	0.0000
0.9705	0.0000
0.9710	0.0000
0.9715	0.0000
0.9720	0.0000
0.9725	0.0000
0.9730	0.0000
0.9735	0.0000
0.9740	0.0000
0.9745	0.0000
0.9750	0.0000
0.9755	0.0000
0.9760	0.0000
0.9765	0.0000
0.9770	0.0000
0.9775	0.0000
0.9780	0.0001
0.9785	0.0000
0.9790	0.0000
0.9795	0.0000
0.9800	0.0000
0.9805	0.0000
0.9810	0.0000
0.9815	0.0001
0.9820	0.0000
0.9825	0.0001
0.9830	0.0000
0.9835	0.0000
0.9840	0.0000
0.9845	0.0001
0.9850	0.0000
0.9855	0.0001
0.9860	0.0001
0.9865	0.0001
0.9870	0.0001
0.9875	0.0001
0.9880	0.0001
0.9885	0.0001
0.9890	0.0001
0.9895	0.0001
0.9900	0.0001
0.9905	0.0001
0.9910	0.0001
0.9915	0.0001
0.9920	0.0001
0.9925	0.0001
0.9930	0.0001
0.9935	0.0001
0.9940	0.0001
0.9945	0.0001
0.9950	0.0001
0.9955	0.0001
0.9960	0.0001
0.9965	0.0001
0.9970	0.0002
0.9975	0.0001
0.9980	0.0002
0.9985	0.0002
0.9990	0.0002
0.9995	0.0003
1.0000	0.0002
1.0005	0.0003
1.0010	0.0003
1.0015	0.0003
1.0020	0.0003
1.0025	0.0003
1.0030	0.0003
1.0035	0.0003
1.0040	0.0003
1.0045	0.0004
1.0050	0.0003
1.0055	0.0003
1.0060	0.0004
1.0065	0.0004
1.0070	0.0004
1.0075	0.0005
1.0080	0.0005
1.0085	0.0005
1.0090	0.0005
1.0095	0.0005
1.0100	0.0006
1.0105	0.0006
1.0110	0.0006
1.0115	0.0006
1.0120	0.0007
1.0125	0.0008
1.0130	0.0008
1.0135	0.0009
1.0140	0.0010
1.0145	0.0010
1.0150	0.0011
1.0155	0.0012
1.0160	0.0013
1.0165	0.0014
1.0170	0.0015
1.0175	0.0017
1.0180	0.0018
1.0185	0.0020
1.0190	0.0022
1.0195	0.0025
1.0200	0.0027
1.0205	0.0030
1.0210	0.0033
1.0215	0.0036
1.0220	0.0040
1.0225	0.0046
1.0230	0.0050
1.0235	0.0056
1.0240	0.0062
1.0245	0.0068
1.0250	0.0075
1.0255	0.0083
1.0260	0.0092
1.0265	0.0102
1.0270	0.0112
1.0275	0.0122
1.0280	0.0135
1.0285	0.0147
1.0290	0.0161
1.0295	0.0176
1.0300	0.0192
1.0305	0.0207
1.0310	0.0224
1.0315	0.0244
1.0320	0.0264
1.0325	0.0285
1.0330	0.0309
1.0335	0.0333
1.0340	0.0359
1.0345	0.0388
1.0350	0.0420
1.0355	0.0454
1.0360	0.0491
1.0365	0.0530
1.0370	0.0572
1.0375	0.0620
1.0380	0.0672
1.0385	0.0729
1.0390	0.0792
1.0395	0.0860
1.0400	0.0935
1.0405	0.1016
1.0410	0.1109
1.0415	0.1208
1.0420	0.1318
1.0425	0.1436
1.0430	0.1558
1.0435	0.1693
1.0440	0.1840
1.0445	0.1991
1.0450	0.2147
1.0455	0.2314
1.0460	0.2485
1.0465	0.2655
1.0470	0.2839
1.0475	0.3015
1.0480	0.3190
1.0485	0.3375
1.0490	0.3553
1.0495	0.3727
1.0500	0.3895
1.0505	0.4051
1.0510	0.4192
1.0515	0.4327
1.0520	0.4449
1.0525	0.4557
1.0530	0.4662
1.0535	0.4753
1.0540	0.4834
1.0545	0.4912
1.0550	0.4984
1.0555	0.5044
1.0560	0.5096
1.0565	0.5144
1.0570	0.5185
1.0575	0.5216
1.0580	0.5243
1.0585	0.5259
1.0590	0.5270
1.0595	0.5273
1.0600	0.5274
1.0605	0.5265
1.0610	0.5256
1.0615	0.5239
1.0620	0.5222
1.0625	0.5203
1.0630	0.5184
1.0635	0.5160
1.0640	0.5139
1.0645	0.5112
1.0650	0.5084
1.0655	0.5057
1.0660	0.5030
1.0665	0.5001
1.0670	0.4973
1.0675	0.4946
1.0680	0.4924
1.0685	0.4919
1.0690	0.4918
1.0695	0.4918
1.0700	0.4921
1.0705	0.4915
1.0710	0.4911
1.0715	0.4909
1.0720	0.4910
1.0725	0.4913
1.0730	0.4920
1.0735	0.4929
1.0740	0.4938
1.0745	0.4964
1.0750	0.4987
1.0755	0.5017
1.0760	0.5044
1.0765	0.5070
1.0770	0.5095
1.0775	0.5121
1.0780	0.5147
1.0785	0.5172
1.0790	0.5196
1.0795	0.5218
1.0800	0.5240
1.0805	0.5262
1.0810	0.5281
1.0815	0.5302
1.0820	0.5318
1.0825	0.5336
1.0830	0.5353
1.0835	0.5369
1.0840	0.5381
1.0845	0.5412
1.0850	0.5438
1.0855	0.5466
1.0860	0.5490
1.0865	0.5501
1.0870	0.5509
1.0875	0.5520
1.0880	0.5527
1.0885	0.5533
1.0890	0.5536
1.0895	0.5542
1.0900	0.5544
1.0905	0.5549
1.0910	0.5552
1.0915	0.5558
1.0920	0.5560
1.0925	0.5565
1.0930	0.5566
1.0935	0.5570
1.0940	0.5571
1.0945	0.5560
1.0950	0.5546
1.0955	0.5532
1.0960	0.5517
1.0965	0.5538
1.0970	0.5556
1.0975	0.5575
1.0980	0.5593
1.0985	0.5613
1.0990	0.5633
1.0995	0.5650
1.1000	0.5667
1.1005	0.5654
1.1010	0.5637
1.1015	0.5621
1.1020	0.5602
1.1025	0.5595
1.1030	0.5586
1.1035	0.5578
1.1040	0.5566
1.1045	0.5564
1.1050	0.5558
1.1055	0.5554
1.1060	0.5549
1.1065	0.5549
1.1070	0.5549
1.1075	0.5547
1.1080	0.5544
1.1085	0.5542
1.1090	0.5534
1.1095	0.5530
1.1100	0.5525
1.1105	0.5509
1.1110	0.5493
1.1115	0.5480
1.1120	0.5468
1.1125	0.5470
1.1130	0.5474
1.1135	0.5478
1.1140	0.5484
1.1145	0.5479
1.1150	0.5476
1.1155	0.5472
1.1160	0.5471
1.1165	0.5450
1.1170	0.5433
1.1175	0.5414
1.1180	0.5400
1.1185	0.5385
1.1190	0.5373
1.1195	0.5364
1.1200	0.5355
1.1205	0.5375
1.1210	0.5399
1.1215	0.5422
1.1220	0.5449
1.1225	0.5463
1.1230	0.5483
1.1235	0.5502
1.1240	0.5523
1.1245	0.5538
1.1250	0.5555
1.1255	0.5570
1.1260	0.5588
1.1265	0.5623
1.1270	0.5658
1.1275	0.5690
1.1280	0.5727
1.1285	0.5765
1.1290	0.5806
1.1295	0.5847
1.1300	0.5889
1.1305	0.5922
1.1310	0.5959
1.1315	0.5991
1.1320	0.6025
1.1325	0.6043
1.1330	0.6061
1.1335	0.6076
1.1340	0.6092
1.1345	0.6106
1.1350	0.6122
1.1355	0.6134
1.1360	0.6148
1.1365	0.6165
1.1370	0.6183
1.1375	0.6198
1.1380	0.6215
1.1385	0.6228
1.1390	0.6242
1.1395	0.6253
1.1400	0.6267
1.1405	0.6258
1.1410	0.6250
1.1415	0.6240
1.1420	0.6232
1.1425	0.6238
1.1430	0.6248
1.1435	0.6255
1.1440	0.6263
1.1445	0.6279
1.1450	0.6296
1.1455	0.6312
1.1460	0.6328
1.1465	0.6322
1.1470	0.6318
1.1475	0.6311
1.1480	0.6305
1.1485	0.6294
1.1490	0.6285
1.1495	0.6274
1.1500	0.6262
1.1505	0.6259
1.1510	0.6258
1.1515	0.6253
1.1520	0.6248
1.1525	0.6246
1.1530	0.6244
1.1535	0.6238
1.1540	0.6237
1.1545	0.6234
1.1550	0.6231
1.1555	0.6225
1.1560	0.6221
1.1565	0.6205
1.1570	0.6191
1.1575	0.6175
1.1580	0.6160
1.1585	0.6143
1.1590	0.6126
1.1595	0.6106
1.1600	0.6090
1.1605	0.6082
1.1610	0.6074
1.1615	0.6067
1.1620	0.6060
1.1625	0.6047
1.1630	0.6035
1.1635	0.6024
1.1640	0.6014
1.1645	0.6000
1.1650	0.5988
1.1655	0.5978
1.1660	0.5967
1.1665	0.5962
1.1670	0.5957
1.1675	0.5954
1.1680	0.5949
1.1685	0.5955
1.1690	0.5960
1.1695	0.5966
1.1700	0.5972
1.1705	0.5973
1.1710	0.5975
1.1715	0.5977
1.1720	0.5980
1.1725	0.5979
1.1730	0.5976
1.1735	0.5977
1.1740	0.5976
1.1745	0.5986
1.1750	0.5995
1.1755	0.6005
1.1760	0.6015
1.1765	0.6034
1.1770	0.6050
1.1775	0.6071
1.1780	0.6088
1.1785	0.6100
1.1790	0.6110
1.1795	0.6123
1.1800	0.6134
1.1805	0.6142
1.1810	0.6146
1.1815	0.6152
1.1820	0.6154
1.1825	0.6163
1.1830	0.6168
1.1835	0.6169
1.1840	0.6159
1.1845	0.6150
1.1850	0.6127
1.1855	0.6090
1.1860	0.6027
1.1865	0.5937
1.1870	0.5822
1.1875	0.5678
1.1880	0.5502
1.1885	0.5295
1.1890	0.5055
1.1895	0.4775
1.1900	0.4470
1.1905	0.4151
1.1910	0.3823
1.1915	0.3484
1.1920	0.3131
1.1925	0.2800
1.1930	0.2480
1.1935	0.2174
1.1940	0.1901
1.1945	0.1653
1.1950	0.1433
1.1955	0.1222
1.1960	0.1051
1.1965	0.0899
1.1970	0.0766
1.1975	0.0658
1.1980	0.0562
1.1985	0.0479
1.1990	0.0406
1.1995	0.0341
1.2000	0.0298
1.2005	0.0255
1.2010	0.0220
1.2015	0.0189
1.2020	0.0163
1.2025	0.0140
1.2030	0.0121
1.2035	0.0105
1.2040	0.0091
1.2045	0.0079
1.2050	0.0069
1.2055	0.0060
1.2060	0.0052
1.2065	0.0045
1.2070	0.0040
1.2075	0.0035
1.2080	0.0031
1.2085	0.0027
1.2090	0.0024
1.2095	0.0021
1.2100	0.0019
1.2105	0.0017
1.2110	0.0015
1.2115	0.0013
1.2120	0.0012
1.2125	0.0010
1.2130	0.0009
1.2135	0.0008
1.2140	0.0007
1.2145	0.0007
1.2150	0.0006
1.2155	0.0005
1.2160	0.0005
1.2165	0.0004
1.2170	0.0004
1.2175	0.0004
1.2180	0.0003
1.2185	0.0003
1.2190	0.0003
1.2195	0.0002
1.2200	0.0002
1.2205	0.0002
1.2210	0.0001
1.2215	0.0001
1.2220	0.0001
1.2225	0.0001
1.2230	0.0001
1.2235	0.0001
1.2240	0.0001
1.2245	0.0001
1.2250	0.0001
1.2255	0.0001
1.2260	0.0001
1.2265	0.0001
1.2270	0.0001
1.2275	0.0001
1.2280	0.0001
1.2285	0.0001
1.2290	0.0001
1.2295	0.0001
1.2300	0.0000
1.2305	0.0001
1.2310	0.0001
1.2315	0.0000
1.2320	0.0000
1.2325	0.0001
1.2330	0.0000
1.2335	0.0000
1.2340	0.0000
1.2345	0.0001
1.2350	0.0000
1.2355	0.0000
1.2360	0.0000
1.2365	0.0000
1.2370	0.0000
1.2375	0.0000
1.2380	0.0000
1.2385	0.0000
1.2390	0.0000
1.2395	0.0000
1.2400	0.0000
1.2405	0.0000
1.2410	0.0000
1.2415	0.0000
1.2420	0.0000
1.2425	0.0000
1.2430	0.0000
1.2435	0.0000
1.2440	0.0000
1.2445	0.0000
1.2450	0.0000
1.2455	0.0000
1.2460	0.0000
1.2465	0.0000
1.2470	0.0000
1.2475	0.0000
1.2480	0.0000
1.2485	0.0000
1.2490	0.0000
1.2495	0.0000
1.2500	0.0000
1.2505	0.0000
1.2510	0.0000
1.2515	0.0000
1.2520	0.0000
1.2525	0.0000
1.2530	0.0000
1.2535	0.0000
1.2540	0.0000
1.2545	0.0000
1.2550	0.0000
1.2555	0.0000
1.2560	0.0000
1.2565	0.0000
1.2570	0.0000
1.2575	0.0000
1.2580	0.0000
1.2585	0.0000
1.2590	0.0000
1.2595	0.0000
1.2600	0.0000
1.2605	0.0000
1.2610	0.0000
1.2615	0.0000
1.2620	0.0000
1.2625	0.0000
1.2630	0.0000
1.2635	0.0000
1.2640	0.0000
1.2645	0.0000
1.2650	0.0000
1.2655	0.0000
1.2660	0.0000
1.2665	0.0000
1.2670	0.0000
1.2675	0.0000
1.2680	0.0000
1.2685	0.0000
1.2690	0.0000
1.2695	0.0000
1.2700	0.0000
1.2705	0.0000
1.2710	0.0000
1.2715	0.0000
1.2720	0.0000
1.2725	0.0000
1.2730	0.0000
1.2735	0.0000
1.2740	0.0000
1.2745	0.0000
1.2750	0.0000
1.2755	0.0000
1.2760	0.0000
1.2765	0.0000
1.2770	0.0000
1.2775	0.0000
1.2780	0.0000
1.2785	0.0000
1.2790	0.0000
1.2795	0.0000
1.2800	0.0000
1.2805	0.0000
1.2810	0.0000
1.2815	0.0000
1.2820	0.0000
1.2825	0.0000
1.2830	0.0000
1.2835	0.0000
1.2840	0.0000
1.2845	0.0000
1.2850	0.0000
1.2855	0.0000
1.2860	0.0000
1.2865	0.0000
1.2870	0.0000
1.2875	0.0000
1.2880	0.0000
1.2885	0.0000
1.2890	0.0000
1.2895	0.0000
1.2900	0.0000
1.2905	0.0000
1.2910	0.0000
1.2915	0.0000
1.2920	0.0000
1.2925	0.0001
1.2930	0.0000
1.2935	0.0000
1.2940	0.0000
1.2945	0.0000
1.2950	0.0000
1.2955	0.0000
1.2960	0.0000
1.2965	0.0000
1.2970	0.0000
1.2975	0.0000
1.2980	0.0000
1.2985	0.0000
1.2990	0.0000
1.2995	0.0000
1.3000	0.0000
