# F2 Net System Transmission with Y Filter
# (BARR ED604; Gemini ID Y_G0811) (1=100%)
# Wavelength (micron)
0.9000	0.0000
0.9005	0.0000
0.9010	0.0000
0.9015	0.0000
0.9020	0.0000
0.9025	0.0000
0.9030	0.0000
0.9035	0.0000
0.9040	0.0000
0.9045	0.0000
0.9050	0.0000
0.9055	0.0000
0.9060	0.0000
0.9065	0.0000
0.9070	0.0000
0.9075	0.0000
0.9080	0.0000
0.9085	0.0000
0.9090	0.0000
0.9095	0.0000
0.9100	0.0000
0.9105	0.0000
0.9110	0.0000
0.9115	0.0000
0.9120	0.0000
0.9125	0.0000
0.9130	0.0000
0.9135	0.0000
0.9140	0.0000
0.9145	0.0000
0.9150	0.0000
0.9155	0.0000
0.9160	0.0000
0.9165	0.0000
0.9170	0.0000
0.9175	0.0000
0.9180	0.0000
0.9185	0.0000
0.9190	0.0000
0.9195	0.0000
0.9200	0.0000
0.9205	0.0000
0.9210	0.0000
0.9215	0.0000
0.9220	0.0000
0.9225	0.0000
0.9230	0.0000
0.9235	0.0000
0.9240	0.0000
0.9245	0.0000
0.9250	0.0000
0.9255	0.0000
0.9260	0.0000
0.9265	0.0000
0.9270	0.0000
0.9275	0.0000
0.9280	0.0001
0.9285	0.0000
0.9290	0.0000
0.9295	0.0000
0.9300	0.0000
0.9305	0.0001
0.9310	0.0001
0.9315	0.0001
0.9320	0.0001
0.9325	0.0001
0.9330	0.0001
0.9335	0.0001
0.9340	0.0001
0.9345	0.0001
0.9350	0.0001
0.9355	0.0001
0.9360	0.0001
0.9365	0.0001
0.9370	0.0001
0.9375	0.0001
0.9380	0.0001
0.9385	0.0002
0.9390	0.0002
0.9395	0.0002
0.9400	0.0002
0.9405	0.0002
0.9410	0.0003
0.9415	0.0003
0.9420	0.0004
0.9425	0.0004
0.9430	0.0004
0.9435	0.0005
0.9440	0.0007
0.9445	0.0008
0.9450	0.0009
0.9455	0.0010
0.9460	0.0011
0.9465	0.0013
0.9470	0.0015
0.9475	0.0016
0.9480	0.0018
0.9485	0.0020
0.9490	0.0022
0.9495	0.0024
0.9500	0.0026
0.9505	0.0028
0.9510	0.0029
0.9515	0.0032
0.9520	0.0034
0.9525	0.0037
0.9530	0.0039
0.9535	0.0042
0.9540	0.0046
0.9545	0.0050
0.9550	0.0055
0.9555	0.0061
0.9560	0.0066
0.9565	0.0074
0.9570	0.0083
0.9575	0.0094
0.9580	0.0107
0.9585	0.0124
0.9590	0.0143
0.9595	0.0165
0.9600	0.0192
0.9605	0.0227
0.9610	0.0272
0.9615	0.0325
0.9620	0.0390
0.9625	0.0470
0.9630	0.0568
0.9635	0.0687
0.9640	0.0840
0.9645	0.1020
0.9650	0.1223
0.9655	0.1447
0.9660	0.1688
0.9665	0.1937
0.9670	0.2193
0.9675	0.2444
0.9680	0.2661
0.9685	0.2842
0.9690	0.2990
0.9695	0.3114
0.9700	0.3218
0.9705	0.3313
0.9710	0.3402
0.9715	0.3475
0.9720	0.3557
0.9725	0.3633
0.9730	0.3716
0.9735	0.3803
0.9740	0.3888
0.9745	0.3964
0.9750	0.4042
0.9755	0.4104
0.9760	0.4164
0.9765	0.4209
0.9770	0.4244
0.9775	0.4267
0.9780	0.4281
0.9785	0.4289
0.9790	0.4290
0.9795	0.4286
0.9800	0.4286
0.9805	0.4280
0.9810	0.4277
0.9815	0.4278
0.9820	0.4285
0.9825	0.4299
0.9830	0.4323
0.9835	0.4349
0.9840	0.4386
0.9845	0.4429
0.9850	0.4475
0.9855	0.4528
0.9860	0.4584
0.9865	0.4642
0.9870	0.4697
0.9875	0.4748
0.9880	0.4797
0.9885	0.4843
0.9890	0.4887
0.9895	0.4923
0.9900	0.4954
0.9905	0.4958
0.9910	0.4961
0.9915	0.4955
0.9920	0.4945
0.9925	0.4928
0.9930	0.4905
0.9935	0.4881
0.9940	0.4857
0.9945	0.4850
0.9950	0.4840
0.9955	0.4834
0.9960	0.4829
0.9965	0.4837
0.9970	0.4848
0.9975	0.4863
0.9980	0.4880
0.9985	0.4892
0.9990	0.4908
0.9995	0.4925
1.0000	0.4940
1.0005	0.4956
1.0010	0.4965
1.0015	0.4974
1.0020	0.4982
1.0025	0.4987
1.0030	0.4984
1.0035	0.4980
1.0040	0.4971
1.0045	0.4961
1.0050	0.4950
1.0055	0.4928
1.0060	0.4907
1.0065	0.4886
1.0070	0.4862
1.0075	0.4833
1.0080	0.4803
1.0085	0.4780
1.0090	0.4751
1.0095	0.4729
1.0100	0.4707
1.0105	0.4693
1.0110	0.4671
1.0115	0.4656
1.0120	0.4641
1.0125	0.4636
1.0130	0.4638
1.0135	0.4644
1.0140	0.4651
1.0145	0.4664
1.0150	0.4682
1.0155	0.4707
1.0160	0.4730
1.0165	0.4765
1.0170	0.4803
1.0175	0.4845
1.0180	0.4889
1.0185	0.4938
1.0190	0.4989
1.0195	0.5033
1.0200	0.5083
1.0205	0.5115
1.0210	0.5152
1.0215	0.5180
1.0220	0.5202
1.0225	0.5224
1.0230	0.5241
1.0235	0.5252
1.0240	0.5255
1.0245	0.5247
1.0250	0.5233
1.0255	0.5215
1.0260	0.5193
1.0265	0.5166
1.0270	0.5138
1.0275	0.5110
1.0280	0.5084
1.0285	0.5058
1.0290	0.5041
1.0295	0.5013
1.0300	0.5002
1.0305	0.4981
1.0310	0.4968
1.0315	0.4956
1.0320	0.4951
1.0325	0.4946
1.0330	0.4949
1.0335	0.4952
1.0340	0.4965
1.0345	0.4979
1.0350	0.4997
1.0355	0.5015
1.0360	0.5038
1.0365	0.5058
1.0370	0.5076
1.0375	0.5098
1.0380	0.5119
1.0385	0.5139
1.0390	0.5158
1.0395	0.5176
1.0400	0.5196
1.0405	0.5220
1.0410	0.5242
1.0415	0.5257
1.0420	0.5282
1.0425	0.5293
1.0430	0.5315
1.0435	0.5319
1.0440	0.5324
1.0445	0.5323
1.0450	0.5325
1.0455	0.5317
1.0460	0.5316
1.0465	0.5305
1.0470	0.5297
1.0475	0.5288
1.0480	0.5278
1.0485	0.5282
1.0490	0.5288
1.0495	0.5288
1.0500	0.5289
1.0505	0.5280
1.0510	0.5268
1.0515	0.5262
1.0520	0.5251
1.0525	0.5241
1.0530	0.5234
1.0535	0.5231
1.0540	0.5227
1.0545	0.5231
1.0550	0.5242
1.0555	0.5253
1.0560	0.5273
1.0565	0.5295
1.0570	0.5324
1.0575	0.5355
1.0580	0.5391
1.0585	0.5426
1.0590	0.5465
1.0595	0.5508
1.0600	0.5548
1.0605	0.5581
1.0610	0.5611
1.0615	0.5627
1.0620	0.5616
1.0625	0.5597
1.0630	0.5545
1.0635	0.5453
1.0640	0.5323
1.0645	0.5147
1.0650	0.4918
1.0655	0.4629
1.0660	0.4310
1.0665	0.3970
1.0670	0.3616
1.0675	0.3260
1.0680	0.2904
1.0685	0.2560
1.0690	0.2236
1.0695	0.1949
1.0700	0.1694
1.0705	0.1468
1.0710	0.1265
1.0715	0.1082
1.0720	0.0928
1.0725	0.0793
1.0730	0.0681
1.0735	0.0589
1.0740	0.0509
1.0745	0.0439
1.0750	0.0379
1.0755	0.0329
1.0760	0.0286
1.0765	0.0249
1.0770	0.0219
1.0775	0.0192
1.0780	0.0167
1.0785	0.0146
1.0790	0.0129
1.0795	0.0113
1.0800	0.0100
1.0805	0.0089
1.0810	0.0079
1.0815	0.0070
1.0820	0.0062
1.0825	0.0056
1.0830	0.0049
1.0835	0.0045
1.0840	0.0040
1.0845	0.0036
1.0850	0.0032
1.0855	0.0029
1.0860	0.0027
1.0865	0.0024
1.0870	0.0022
1.0875	0.0019
1.0880	0.0017
1.0885	0.0016
1.0890	0.0014
1.0895	0.0014
1.0900	0.0012
1.0905	0.0011
1.0910	0.0010
1.0915	0.0009
1.0920	0.0009
1.0925	0.0008
1.0930	0.0007
1.0935	0.0007
1.0940	0.0006
1.0945	0.0005
1.0950	0.0005
1.0955	0.0005
1.0960	0.0005
1.0965	0.0004
1.0970	0.0004
1.0975	0.0003
1.0980	0.0003
1.0985	0.0003
1.0990	0.0003
1.0995	0.0003
1.1000	0.0003
1.1005	0.0002
1.1010	0.0002
1.1015	0.0002
1.1020	0.0001
1.1025	0.0001
1.1030	0.0002
1.1035	0.0001
1.1040	0.0001
1.1045	0.0001
1.1050	0.0001
1.1055	0.0001
1.1060	0.0001
1.1065	0.0001
1.1070	0.0001
1.1075	0.0001
1.1080	0.0001
1.1085	0.0001
1.1090	0.0001
1.1095	0.0001
1.1100	0.0001
1.1105	0.0001
1.1110	0.0001
1.1115	0.0001
1.1120	0.0001
1.1125	0.0001
1.1130	0.0001
1.1135	0.0000
1.1140	0.0000
1.1145	0.0000
1.1150	0.0000
1.1155	0.0000
1.1160	0.0000
1.1165	0.0000
1.1170	0.0000
1.1175	0.0000
1.1180	0.0000
1.1185	0.0000
1.1190	0.0000
1.1195	0.0000
1.1200	0.0000
1.1205	0.0000
1.1210	0.0000
1.1215	0.0000
1.1220	0.0000
1.1225	0.0001
1.1230	0.0000
1.1235	0.0000
1.1240	0.0000
1.1245	0.0000
1.1250	0.0000
1.1255	0.0000
1.1260	0.0000
1.1265	0.0000
1.1270	0.0000
1.1275	0.0000
1.1280	0.0000
1.1285	-0.0001
1.1290	0.0000
1.1295	0.0000
1.1300	0.0000
1.1305	0.0000
1.1310	-0.0001
1.1315	0.0000
1.1320	0.0000
1.1325	-0.0001
1.1330	0.0000
1.1335	0.0000
1.1340	-0.0001
1.1345	0.0000
1.1350	0.0000
1.1355	0.0000
1.1360	0.0000
1.1365	0.0000
1.1370	0.0000
1.1375	0.0000
1.1380	0.0000
1.1385	0.0000
1.1390	0.0000
1.1395	0.0000
1.1400	0.0000
1.1405	0.0000
1.1410	0.0000
1.1415	0.0000
1.1420	0.0000
1.1425	0.0000
1.1430	0.0000
1.1435	0.0000
1.1440	0.0000
1.1445	0.0000
1.1450	0.0000
1.1455	0.0000
1.1460	0.0000
1.1465	0.0000
1.1470	0.0000
1.1475	0.0000
1.1480	0.0001
1.1485	0.0000
1.1490	0.0000
1.1495	0.0000
1.1500	0.0000
